# scan = 3
# date = 8/13/2012
# time = 2:21:51 PM
# proposal = IPTS-6174
# experiment = Magnetic structures of the frustrated systems BaNd2O4 and BaTb2O4
# experiment_number = 231
# command = scan 2theta 6 12 .1 preset time 30
# builtin_command = scan 2theta 6 12 .1 preset time 30
# users = Adam Aczel, Ling Li
# local_contact = Ovi Garlea
# scan_title = BaTb2O4, 2.41A, 12-open, T=2K
# monochromator = 
# analyzer = 
# sense = -+-
# collimation = 48-40-40-120
# samplename = BaNd2O4 and BaTb2O4
# sampletype = powder
# samplemosaic = 30.000000
# latticeconstants = 5.000000,5.000000,5.000000,90.000000,90.000000,90.000000
# ubmatrix = 0.000000,0.000000,0.000000,0.000000,0.000000,0.000000,0.000000,0.000000,0.000000
# mode = 3
# ubconf = UB13Aug2012_115155AM.ini
# preset_type = normal 
# preset_channel = time
# preset_value = 30.000000
# def_x = 2theta
# def_y = monitor
# col_headers = 
#   Pt.     2theta       time    monitor   detector     anode1     anode2     anode3     anode4     anode5     anode6     anode7     anode8     anode9    anode10    anode11    anode12    anode13    anode14    anode15    anode16    anode17    anode18    anode19    anode20    anode21    anode22    anode23    anode24    anode25    anode26    anode27    anode28    anode29    anode30    anode31    anode32    anode33    anode34    anode35    anode36    anode37    anode38    anode39    anode40    anode41    anode42    anode43    anode44         m1       marc     mtrans   coltrans     colrot       coll     mfocus   pgfilter         s1    slit_bt    slit_lf    slit_rt    slit_tp        stl        stu        vti       sorb  sample_lt  sample_ht     temp_a     temp_b
      1     6.0000     30.000  31740.000   6045.000    128.000    139.000    134.000    143.000    152.000    148.000    158.000    125.000    150.000    157.000    119.000    137.000    132.000    152.000    141.000    182.000    151.000     97.000    128.000    131.000    223.000    129.000    134.000     86.000    135.000    171.000    127.000    130.000    139.000    113.000    323.000    109.000    132.000    119.000    115.000    124.000    123.000    211.000    111.000     74.000    121.000    100.000    106.000     86.000     9.5000     0.2700     2.5000     0.0000     0.0000     0.0000     0.0000   100.0000     0.0004    28.0000     7.0000     7.0000    22.0000     0.1000     1.2000     1.5393    40.4143     2.5491     0.0000     1.0000    40.000
      2     6.1000     30.000  32003.000   6125.000    138.000    154.000    138.000    155.000    158.000    151.000    130.000    109.000    170.000    139.000    134.000    141.000    148.000    122.000    133.000    190.000    141.000    109.000    116.000    121.000    159.000    133.000    115.000    114.000    119.000    138.000    127.000    186.000    123.000    111.000    400.000    116.000    154.000    119.000    144.000    129.000    114.000    231.000     97.000     92.000    145.000    108.000     78.000     76.000     9.5000     0.2700     2.5000     0.0000     0.0000     0.0000     0.0000   100.0000     0.0004    28.0000     7.0000     7.0000    22.0000     0.1000     1.2000     1.5389    39.3226     2.5064     0.0000     1.0000    40.000
      3     6.2000     30.000  31604.000   6333.000    141.000    186.000    142.000    143.000    164.000    152.000    143.000    124.000    127.000    130.000    126.000    130.000    141.000    127.000    122.000    185.000    138.000     86.000    128.000    125.000    197.000    137.000    138.000     97.000     88.000    149.000    114.000    258.000    130.000    128.000    499.000    122.000    153.000    122.000    116.000    151.000     90.000    263.000    103.000    109.000    125.000    116.000     94.000     74.000     9.5000     0.2700     2.5000     0.0000     0.0000     0.0000     0.0000   100.0000     0.0004    28.0000     7.0000     7.0000    22.0000     0.1000     1.2000     1.5388    38.7461     2.4711     0.0000     1.0000    40.000
      4     6.3000     30.000  31875.000   6162.000    137.000    136.000    137.000    131.000    136.000    148.000    133.000    127.000    158.000    166.000    138.000    115.000    153.000    135.000    133.000    189.000    125.000    102.000    117.000    121.000    239.000    107.000    137.000     99.000    132.000    123.000    152.000    237.000    116.000    110.000    343.000    102.000    153.000    101.000    126.000    123.000    118.000    270.000    114.000    121.000    125.000    124.000     91.000     62.000     9.5000     0.2700     2.5000     0.0000     0.0000     0.0000     0.0000   100.0000     0.0004    28.0000     7.0000     7.0000    22.0000     0.1000     1.2000     1.5390    39.3521     2.4539     0.0000     1.0000    40.000
      5     6.4000     30.000  32019.000   6020.000    147.000    127.000    142.000    163.000    142.000    129.000    148.000    140.000    159.000    145.000    125.000    123.000    158.000    138.000    139.000    215.000    113.000    108.000    127.000    126.000    218.000    115.000    121.000    101.000    131.000    122.000    132.000    159.000    126.000    116.000    201.000    109.000    177.000     99.000    109.000    121.000     92.000    253.000    116.000    127.000    141.000    131.000     99.000     90.000     9.5000     0.2700     2.5000     0.0000     0.0000     0.0000     0.0000   100.0000     0.0004    28.0000     7.0000     7.0000    22.0000     0.1000     1.2000     1.5382    39.9951     2.4274     0.0000     1.0000    40.000
      6     6.5000     30.000  31580.000   5873.000    128.000    146.000    128.000    147.000    167.000    124.000    143.000    112.000    148.000    130.000    133.000    127.000    146.000    152.000    132.000    195.000    145.000     99.000    102.000    157.000    181.000    123.000    123.000     80.000    126.000    132.000    128.000    123.000    127.000    103.000    154.000    104.000    273.000    126.000    120.000     98.000     97.000    226.000    113.000    120.000    115.000    144.000    102.000     74.000     9.5000     0.2700     2.5000     0.0000     0.0000     0.0000     0.0000   100.0000     0.0004    28.0000     7.0000     7.0000    22.0000     0.1000     1.2000     1.5397    40.1318     2.3906     0.0000     1.0000    40.000
      7     6.6000     30.000  32005.000   5786.000    130.000    153.000    146.000    126.000    144.000    126.000    133.000    129.000    134.000    151.000    121.000    132.000    139.000    129.000    146.000    209.000    131.000     96.000    119.000    121.000    148.000    129.000    128.000    103.000    116.000    119.000    132.000    113.000    135.000    111.000    137.000     99.000    297.000    107.000    101.000    100.000     80.000    182.000    128.000    124.000    138.000    163.000    103.000     78.000     9.5000     0.2700     2.5000     0.0000     0.0000     0.0000     0.0000   100.0000     0.0004    28.0000     7.0000     7.0000    22.0000     0.1000     1.2000     1.5396    40.0109     2.3514     0.0000     1.0000    40.000
      8     6.7000     30.000  31658.000   5884.000    136.000    166.000    155.000    146.000    159.000    119.000    137.000    127.000    185.000    164.000    142.000    122.000    128.000    131.000    148.000    129.000    133.000    100.000     98.000    148.000    140.000    114.000    131.000    106.000    138.000    143.000    119.000    129.000    121.000    112.000    151.000    115.000    290.000    141.000    114.000    105.000     88.000    135.000    128.000    124.000    147.000    145.000     91.000     84.000     9.5000     0.2700     2.5000     0.0000     0.0000     0.0000     0.0000   100.0000     0.0004    28.0000     7.0000     7.0000    22.0000     0.1000     1.2000     1.5389    39.9563     2.3165     0.0000     1.0000    40.000
      9     6.8000     30.000  31774.000   5763.000    130.000    155.000    143.000    145.000    175.000    150.000    157.000    143.000    147.000    147.000    117.000    113.000    144.000    150.000    155.000    133.000    135.000     95.000    112.000    131.000    129.000    128.000    125.000     97.000    118.000    129.000    135.000    115.000    122.000    121.000    199.000    107.000    241.000    101.000    119.000     94.000    100.000    123.000    128.000    103.000    163.000    139.000     85.000     65.000     9.5000     0.2700     2.5000     0.0000     0.0000     0.0000     0.0000   100.0000     0.0004    28.0000     7.0000     7.0000    22.0000     0.1000     1.2000     1.5405    39.9821     2.2851     0.0000     1.0000    40.000
     10     6.9000     30.000  31956.000   5919.000    128.000    150.000    137.000    160.000    144.000    123.000    165.000    143.000    152.000    137.000    135.000    136.000    145.000    132.000    137.000    143.000    114.000     97.000    127.000    117.000    193.000    126.000    118.000    105.000    175.000    148.000    142.000    118.000    121.000    109.000    192.000    113.000    162.000    110.000    113.000    119.000     94.000    125.000    141.000    101.000    263.000    124.000     92.000     93.000     9.5000     0.2700     2.5000     0.0000     0.0000     0.0000     0.0000   100.0000     0.0004    28.0000     7.0000     7.0000    22.0000     0.1000     1.2000     1.5397    40.0127     2.2499     0.0000     1.0000    40.000
     11     7.0000     30.000  31606.000   6023.000    131.000    184.000    136.000    141.000    140.000    133.000    148.000    121.000    126.000    126.000    124.000    148.000    145.000    142.000    141.000    114.000    159.000    126.000    146.000    146.000    201.000    119.000    133.000    107.000    152.000    136.000    122.000    106.000     98.000    116.000    195.000    103.000    148.000    115.000    115.000    118.000    114.000    126.000    144.000     90.000    393.000    122.000     94.000     79.000     9.5000     0.2700     2.5000     0.0000     0.0000     0.0000     0.0000   100.0000     0.0004    28.0000     7.0000     7.0000    22.0000     0.1000     1.2000     1.5391    40.0157     2.2198     0.0000     1.0000    40.000
     12     7.1000     30.000  31852.000   6240.000    143.000    155.000    132.000    149.000    152.000    124.000    139.000    143.000    161.000    125.000    129.000    134.000    166.000    127.000    138.000    128.000    142.000     86.000    183.000    124.000    203.000    118.000    140.000    106.000    138.000    115.000    134.000    116.000    126.000    106.000    184.000    129.000    156.000    131.000    141.000    131.000    102.000    134.000    114.000     89.000    560.000    128.000     78.000     81.000     9.5000     0.2700     2.5000     0.0000     0.0000     0.0000     0.0000   100.0000     0.0004    28.0000     7.0000     7.0000    22.0000     0.1000     1.2000     1.5407    40.0061     2.1863     0.0000     1.0000    40.000
     13     7.2000     30.000  31808.000   6585.000    146.000    155.000    153.000    139.000    140.000    135.000    153.000    152.000    167.000    144.000    124.000    116.000    133.000    111.000    143.000    132.000    143.000    115.000    290.000    119.000    235.000    125.000    130.000    108.000    136.000    131.000    133.000    120.000    129.000    114.000    296.000    109.000    131.000    121.000    144.000    117.000    102.000     99.000    122.000     73.000    700.000    115.000     85.000    100.000     9.5000     0.2700     2.5000     0.0000     0.0000     0.0000     0.0000   100.0000     0.0004    28.0000     7.0000     7.0000    22.0000     0.1000     1.2000     1.5394    40.0025     2.1575     0.0000     1.0000    40.000
     14     7.3000     30.000  32130.000   6537.000    130.000    179.000    129.000    129.000    146.000    161.000    139.000    159.000    142.000    142.000    133.000    113.000    146.000    130.000    127.000    119.000    133.000    104.000    290.000    133.000    235.000    108.000    128.000     85.000    121.000    119.000    118.000    105.000    110.000    125.000    285.000    102.000    129.000    123.000    133.000    124.000     97.000    118.000    122.000     73.000    820.000    120.000     78.000     75.000     9.5000     0.2700     2.5000     0.0000     0.0000     0.0000     0.0000   100.0000     0.0004    28.0000     7.0000     7.0000    22.0000     0.1000     1.2000     1.5394    40.0022     2.1251     0.0000     1.0000    40.000
     15     7.4000     30.000  31951.000   6559.000    124.000    151.000    164.000    145.000    160.000    119.000    144.000    150.000    136.000    155.000    139.000    125.000    139.000    115.000    139.000    164.000    142.000     89.000    276.000    134.000    229.000    130.000    116.000    107.000    114.000    114.000    126.000    119.000    126.000    108.000    231.000    110.000    139.000    138.000    125.000    114.000     97.000    100.000    121.000     87.000    800.000    121.000     91.000     86.000     9.5000     0.2700     2.5000     0.0000     0.0000     0.0000     0.0000   100.0000     0.0004    28.0000     7.0000     7.0000    22.0000     0.1000     1.2000     1.5398    40.0062     2.0950     0.0000     1.0000    40.000
     16     7.5000     30.000  32084.000   6348.000    132.000    138.000    145.000    151.000    150.000    124.000    114.000    168.000    160.000    143.000    143.000    112.000    131.000    138.000    151.000    151.000    146.000    113.000    174.000    130.000    180.000    130.000    119.000    133.000    107.000    151.000    133.000    130.000    115.000    110.000    170.000    125.000    146.000    129.000    127.000    106.000     84.000    106.000    118.000     94.000    747.000    110.000     96.000     68.000     9.5000     0.2700     2.5000     0.0000     0.0000     0.0000     0.0000   100.0000     0.0004    28.0000     7.0000     7.0000    22.0000     0.1000     1.2000     1.5419    40.0022     2.0667     0.0000     1.0000    40.000
     17     7.6000     30.000  31962.000   6115.000    135.000    157.000    129.000    136.000    169.000    154.000    143.000    159.000    140.000    144.000    133.000    105.000    152.000    139.000    139.000    125.000    125.000    110.000    132.000    143.000    130.000    129.000    125.000    167.000    101.000    165.000    109.000    125.000    126.000    124.000    191.000    105.000    150.000    114.000    125.000    111.000    138.000    100.000    108.000     90.000    560.000    103.000     78.000     72.000     9.5000     0.2700     2.5000     0.0000     0.0000     0.0000     0.0000   100.0000     0.0004    28.0000     7.0000     7.0000    22.0000     0.1000     1.2000     1.5414    39.9930     2.0358     0.0000     1.0000    40.000
     18     7.7000     30.000  31970.000   6207.000    133.000    145.000    135.000    156.000    157.000    122.000    153.000    171.000    158.000    144.000    135.000    137.000    159.000    122.000    130.000    124.000    125.000     80.000    143.000    143.000    135.000    136.000    140.000    288.000    127.000    139.000    122.000    132.000    134.000    105.000    275.000    101.000    125.000    124.000    106.000    104.000     90.000    126.000    116.000     98.000    418.000    104.000     90.000    100.000     9.5000     0.2700     2.5000     0.0000     0.0000     0.0000     0.0000   100.0000     0.0004    28.0000     7.0000     7.0000    22.0000     0.1000     1.2000     1.5420    39.9968     2.0094     0.0000     1.0000    40.000
     19     7.8000     30.000  31809.000   6099.000    152.000    154.000    141.000    134.000    152.000    120.000    161.000    185.000    138.000    147.000    134.000    116.000    141.000    137.000    123.000    121.000    133.000    101.000    169.000    129.000    145.000    107.000    118.000    350.000    122.000    136.000    104.000    130.000    107.000    129.000    379.000    110.000    119.000    119.000    104.000    104.000    100.000    102.000     96.000     92.000    279.000     92.000     87.000     80.000     9.5000     0.2700     2.5000     0.0000     0.0000     0.0000     0.0000   100.0000     0.0004    28.0000     7.0000     7.0000    22.0000     0.1000     1.2000     1.5413    40.0010     1.9802     0.0000     1.0000    40.000
     20     7.9000     30.000  32018.000   5788.000    116.000    146.000    135.000    148.000    132.000    136.000    153.000    140.000    135.000    144.000    124.000     84.000    147.000    130.000    127.000    119.000    100.000    105.000    122.000    129.000    137.000    131.000    129.000    266.000    129.000    125.000    140.000    116.000    113.000    127.000    367.000    102.000    116.000    123.000    121.000    103.000    113.000    110.000    110.000    113.000    203.000     78.000     77.000     67.000     9.5000     0.2700     2.5000     0.0000     0.0000     0.0000     0.0000   100.0000     0.0004    28.0000     7.0000     7.0000    22.0000     0.1000     1.2000     1.5416    40.0022     1.9560     0.0000     1.0000    40.000
     21     8.0000     30.000  31657.000   5891.000    109.000    156.000    158.000    150.000    151.000    166.000    128.000    158.000    141.000    159.000    137.000    136.000    134.000    126.000    125.000    139.000    124.000    115.000    120.000    149.000    160.000    142.000    134.000    186.000    127.000    147.000    137.000    125.000     95.000    119.000    316.000    114.000    120.000    114.000    115.000     90.000    111.000    104.000    116.000    128.000    166.000     83.000     99.000     62.000     9.5000     0.2700     2.5000     0.0000     0.0000     0.0000     0.0000   100.0000     0.0004    28.0000     7.0000     7.0000    22.0000     0.1000     1.2000     1.5416    40.0013     1.9309     0.0000     1.0000    40.000
     22     8.1000     30.000  32161.000   5850.000    130.000    147.000    139.000    135.000    151.000    144.000    125.000    127.000    165.000    144.000    127.000    116.000    132.000    136.000    146.000    157.000    123.000    146.000    130.000    135.000    205.000    151.000    124.000    159.000    142.000    139.000    115.000    130.000    134.000    101.000    306.000    103.000    131.000    104.000    124.000    116.000    125.000    122.000    103.000    101.000    140.000     76.000     73.000     71.000     9.5000     0.2700     2.5000     0.0000     0.0000     0.0000     0.0000   100.0000     0.0004    28.0000     7.0000     7.0000    22.0000     0.1000     1.2000     1.5411    39.9989     1.9071     0.0000     1.0000    40.000
     23     8.2000     30.000  32056.000   6036.000    128.000    178.000    134.000    146.000    156.000    138.000    147.000    152.000    143.000    137.000    132.000    121.000    141.000    130.000    136.000    181.000    112.000    161.000    106.000    150.000    262.000    153.000    136.000    236.000    103.000    138.000    143.000    136.000    130.000    109.000    271.000    120.000    106.000    114.000    109.000     89.000    128.000    109.000    111.000    118.000    146.000     75.000     81.000     84.000     9.5000     0.2700     2.5000     0.0000     0.0000     0.0000     0.0000   100.0000     0.0004    28.0000     7.0000     7.0000    22.0000     0.1000     1.2000     1.5432    40.0005     1.8840     0.0000     1.0000    40.000
     24     8.3000     30.000  31937.000   5952.000    145.000    159.000    146.000    139.000    157.000    131.000    169.000    139.000    145.000    165.000    137.000    107.000    133.000    120.000    144.000    180.000    136.000    151.000    110.000    182.000    214.000    142.000    118.000    271.000    100.000    118.000    130.000    123.000    136.000    111.000    176.000    130.000    113.000     99.000    120.000    128.000    133.000    122.000    113.000     96.000    132.000     85.000     80.000     67.000     9.5000     0.2700     2.5000     0.0000     0.0000     0.0000     0.0000   100.0000     0.0004    28.0000     7.0000     7.0000    22.0000     0.1000     1.2000     1.5415    40.0015     1.8631     0.0000     1.0000    40.000
     25     8.4000     30.000  31761.000   5872.000    118.000    140.000    163.000    140.000    146.000    154.000    120.000    106.000    154.000    143.000    109.000    126.000    151.000    139.000    112.000    162.000    131.000    152.000    112.000    330.000    177.000    134.000    121.000    212.000    179.000    121.000    118.000    125.000    116.000    144.000    112.000    102.000    107.000    126.000    118.000    118.000    155.000     98.000    106.000     94.000    122.000     81.000     86.000     92.000     9.5000     0.2700     2.5000     0.0000     0.0000     0.0000     0.0000   100.0000     0.0004    28.0000     7.0000     7.0000    22.0000     0.1000     1.2000     1.5415    40.0023     1.8455     0.0000     1.0000    40.000
     26     8.5000     30.000  31458.000   6224.000    135.000    149.000    129.000    139.000    171.000    146.000    144.000    156.000    127.000    149.000    142.000    122.000    136.000    136.000    151.000    180.000    117.000    121.000    113.000    347.000    147.000    124.000    122.000    127.000    339.000    142.000    144.000    113.000    123.000    179.000    133.000    116.000    134.000    129.000    106.000    156.000    174.000    108.000    103.000    117.000    124.000     88.000     85.000     81.000     9.5000     0.2700     2.5000     0.0000     0.0000     0.0000     0.0000   100.0000     0.0004    28.0000     7.0000     7.0000    22.0000     0.1000     1.2000     1.5421    40.0017     1.8262     0.0000     1.0000    40.000
     27     8.6000     30.000  31671.000   6133.000    119.000    174.000    115.000    147.000    150.000    127.000    164.000    139.000    125.000    125.000    140.000    138.000    132.000    119.000    144.000    119.000    148.000    116.000    121.000    324.000    141.000    128.000    126.000     88.000    367.000    120.000    114.000    124.000    118.000    265.000    121.000    118.000    120.000    142.000    130.000    128.000    169.000    116.000    119.000    107.000    133.000    101.000     86.000     66.000     9.5000     0.2700     2.5000     0.0000     0.0000     0.0000     0.0000   100.0000     0.0004    28.0000     7.0000     7.0000    22.0000     0.1000     1.2000     1.5422    40.0003     1.8111     0.0000     1.0000    40.000
     28     8.7000     30.000  31905.000   5960.000    107.000    131.000    158.000    144.000    175.000    134.000    148.000    124.000    139.000    130.000    139.000    110.000    151.000    130.000    184.000    119.000    137.000     97.000    118.000    199.000    132.000    106.000    119.000    110.000    234.000    106.000    130.000    124.000    119.000    313.000    122.000    135.000    141.000    142.000    143.000    154.000    171.000     91.000    115.000     96.000    122.000     81.000     92.000     88.000     9.5000     0.2700     2.5000     0.0000     0.0000     0.0000     0.0000   100.0000     0.0004    28.0000     7.0000     7.0000    22.0000     0.1000     1.2000     1.5425    39.9994     1.7955     0.0000     1.0000    40.000
     29     8.8000     30.000  31706.000   6022.000    136.000    160.000    151.000    140.000    156.000    151.000    128.000    132.000    149.000    134.000    125.000    130.000    161.000    140.000    197.000    143.000    125.000    104.000    114.000    158.000    129.000    125.000    116.000    105.000    155.000    108.000    170.000    122.000    106.000    441.000    123.000    157.000    119.000    118.000    154.000    117.000    168.000    105.000    123.000     90.000    121.000     73.000     69.000     74.000     9.5000     0.2700     2.5000     0.0000     0.0000     0.0000     0.0000   100.0000     0.0004    28.0000     7.0000     7.0000    22.0000     0.1000     1.2000     1.5412    39.9999     1.7833     0.0000     1.0000    40.000
     30     8.9000     30.000  32125.000   6208.000    129.000    139.000    146.000    160.000    181.000    159.000    147.000    121.000    146.000    143.000    151.000     97.000    144.000    134.000    201.000    122.000    138.000    100.000     89.000    193.000    124.000    119.000    119.000     88.000    111.000    116.000    236.000    111.000    139.000    436.000    101.000    128.000    132.000    121.000    168.000    113.000    213.000    134.000    154.000    121.000    129.000     90.000     84.000     81.000     9.5000     0.2700     2.5000     0.0000     0.0000     0.0000     0.0000   100.0000     0.0004    28.0000     7.0000     7.0000    22.0000     0.1000     1.2000     1.5416    40.0017     1.7699     0.0000     1.0000    40.000
     31     9.0000     30.000  31606.000   5993.000    138.000    161.000    137.000    161.000    157.000    155.000    162.000    127.000    141.000    138.000    139.000     98.000    120.000    131.000    207.000    104.000    119.000    118.000    126.000    227.000    125.000    118.000    129.000     96.000    120.000    131.000    234.000    111.000    116.000    230.000    118.000    149.000    119.000    124.000    159.000     87.000    222.000    119.000    122.000     90.000    150.000    101.000     88.000     69.000     9.5000     0.2700     2.5000     0.0000     0.0000     0.0000     0.0000   100.0000     0.0004    28.0000     7.0000     7.0000    22.0000     0.1000     1.2000     1.5415    40.0019     1.7577     0.0000     1.0000    40.000
     32     9.1000     30.000  32156.000   5768.000    117.000    149.000    152.000    129.000    167.000    149.000    138.000    135.000    152.000    129.000    126.000    125.000    131.000    121.000    184.000    118.000    124.000    106.000    123.000    202.000    126.000    109.000    121.000     96.000    104.000    103.000    184.000    111.000    131.000    154.000    111.000    212.000    123.000    108.000    110.000    102.000    208.000     80.000    173.000    110.000    171.000     98.000     65.000     81.000     9.5000     0.2700     2.5000     0.0000     0.0000     0.0000     0.0000   100.0000     0.0004    28.0000     7.0000     7.0000    22.0000     0.1000     1.2000     1.5410    39.9999     1.7485     0.0000     1.0000    40.000
     33     9.2000     30.000  31857.000   5888.000    140.000    167.000    160.000    133.000    159.000    159.000    132.000    125.000    156.000    119.000    123.000    121.000    137.000    128.000    214.000    118.000    144.000    107.000    101.000    176.000    126.000    136.000    110.000     94.000    122.000    121.000    148.000    130.000    119.000    126.000    117.000    268.000    121.000     99.000    111.000    107.000    175.000    147.000    146.000     99.000    189.000    113.000     77.000     68.000     9.5000     0.2700     2.5000     0.0000     0.0000     0.0000     0.0000   100.0000     0.0004    28.0000     7.0000     7.0000    22.0000     0.1000     1.2000     1.5414    40.0016     1.7391     0.0000     1.0000    40.000
     34     9.3000     30.000  31769.000   5832.000    119.000    162.000    136.000    143.000    161.000    154.000    159.000    135.000    153.000    133.000    146.000    125.000    156.000    138.000    209.000    129.000    133.000     99.000     97.000    147.000    131.000    123.000    106.000    135.000    112.000    111.000    143.000    101.000    115.000    109.000    100.000    283.000    117.000    109.000    122.000     86.000    136.000    127.000    174.000    112.000    195.000     85.000     81.000     85.000     9.5000     0.2700     2.5000     0.0000     0.0000     0.0000     0.0000   100.0000     0.0004    28.0000     7.0000     7.0000    22.0000     0.1000     1.2000     1.5409    39.9994     1.7333     0.0000     1.0000    40.000
     35     9.4000     30.000  31739.000   5677.000    125.000    159.000    147.000    149.000    166.000    137.000    139.000    107.000    148.000    132.000    128.000    118.000    130.000    109.000    229.000    120.000    134.000     86.000    106.000    144.000    145.000    127.000    130.000    132.000    129.000    110.000    127.000    120.000    125.000    147.000    113.000    177.000    120.000    120.000    101.000    121.000    122.000    127.000    140.000    141.000    166.000     80.000     74.000     70.000     9.5000     0.2700     2.5000     0.0000     0.0000     0.0000     0.0000   100.0000     0.0004    28.0000     7.0000     7.0000    22.0000     0.1000     1.2000     1.5412    40.0002     1.7256     0.0000     1.0000    40.000
     36     9.5000     30.000  31945.000   5606.000    118.000    142.000    165.000    133.000    142.000    151.000    132.000    117.000    154.000    137.000    134.000    113.000    132.000    130.000    166.000    138.000    122.000    101.000    116.000    135.000    128.000    133.000    104.000    138.000    149.000    101.000    132.000    127.000    111.000    185.000    113.000    162.000    102.000    121.000    125.000     92.000     89.000    121.000    134.000    158.000    166.000     77.000     90.000     70.000     9.5000     0.2700     2.5000     0.0000     0.0000     0.0000     0.0000   100.0000     0.0004    28.0000     7.0000     7.0000    22.0000     0.1000     1.2000     1.5414    39.9983     1.7193     0.0000     1.0000    40.000
     37     9.6000     30.000  31508.000   5843.000    132.000    153.000    161.000    152.000    158.000    140.000    155.000    112.000    144.000    143.000    133.000    127.000    131.000    119.000    143.000    143.000    129.000    123.000    119.000    174.000    131.000    124.000    110.000    125.000    124.000    108.000    121.000    115.000    133.000    203.000    104.000    127.000    122.000    122.000    119.000    107.000     99.000    139.000    143.000    272.000    158.000     81.000     86.000     79.000     9.5000     0.2700     2.5000     0.0000     0.0000     0.0000     0.0000   100.0000     0.0004    28.0000     7.0000     7.0000    22.0000     0.1000     1.2000     1.5420    39.9994     1.7146     0.0000     1.0000    40.000
     38     9.7000     30.000  32096.000   5972.000    120.000    170.000    162.000    141.000    157.000    149.000    138.000    131.000    145.000    153.000    149.000    117.000    133.000    139.000    125.000    104.000    124.000    110.000    103.000    202.000    135.000    122.000    114.000    118.000    143.000    119.000    116.000    110.000    117.000    176.000    111.000    128.000    130.000    124.000    121.000    117.000     95.000    130.000    113.000    415.000    173.000    105.000     91.000     77.000     9.5000     0.2700     2.5000     0.0000     0.0000     0.0000     0.0000   100.0000     0.0004    28.0000     7.0000     7.0000    22.0000     0.1000     1.2000     1.5415    40.0006     1.7095     0.0000     1.0000    40.000
     39     9.8000     30.000  31903.000   6144.000    113.000    175.000    144.000    154.000    155.000    144.000    169.000     99.000    146.000    162.000    107.000    127.000    153.000    139.000    139.000    129.000    131.000    127.000    104.000    213.000    150.000    119.000    125.000    106.000    115.000    130.000    111.000    111.000    123.000    195.000    126.000    122.000    100.000    127.000    118.000     98.000    111.000    144.000    103.000    576.000    152.000     88.000     88.000     76.000     9.5000     0.2700     2.5000     0.0000     0.0000     0.0000     0.0000   100.0000     0.0004    28.0000     7.0000     7.0000    22.0000     0.1000     1.2000     1.5427    40.0007     1.7060     0.0000     1.0000    40.000
     40     9.9000     30.000  31776.000   6353.000    152.000    163.000    130.000    144.000    168.000    140.000    142.000    152.000    163.000    142.000    135.000    110.000    125.000    129.000    124.000    147.000    136.000    177.000    110.000    202.000    118.000    117.000    106.000    106.000    122.000    119.000    129.000    126.000    148.000    270.000    119.000    120.000    110.000    143.000    114.000     87.000     96.000    132.000    116.000    649.000    181.000     92.000     73.000     69.000     9.5000     0.2700     2.5000     0.0000     0.0000     0.0000     0.0000   100.0000     0.0004    28.0000     7.0000     7.0000    22.0000     0.1000     1.2000     1.5418    39.9985     1.7018     0.0000     1.0000    40.000
     41    10.0000     30.000  31748.000   6369.000    125.000    169.000    139.000    119.000    166.000    133.000    140.000    139.000    135.000    132.000    142.000    104.000    119.000    135.000    130.000    138.000    124.000    231.000    106.000    234.000    125.000    121.000    128.000    112.000    123.000    137.000    122.000    124.000    132.000    269.000    115.000     98.000    102.000    125.000    113.000     96.000    106.000    118.000    103.000    746.000    124.000     91.000     91.000     88.000     9.5000     0.2700     2.5000     0.0000     0.0000     0.0000     0.0000   100.0000     0.0004    28.0000     7.0000     7.0000    22.0000     0.1000     1.2000     1.5419    40.0002     1.7002     0.0000     1.0000    40.000
     42    10.1000     30.000  31863.000   6352.000    128.000    165.000    150.000    171.000    173.000    161.000    173.000    116.000    138.000    155.000    117.000    137.000    120.000    131.000    125.000    143.000    122.000    234.000    123.000    195.000    157.000    105.000    122.000     98.000    117.000    122.000    130.000    117.000    120.000    169.000    109.000    127.000    117.000    142.000    108.000     94.000     97.000    121.000    108.000    725.000    134.000     92.000     86.000     58.000     9.5000     0.2700     2.5000     0.0000     0.0000     0.0000     0.0000   100.0000     0.0004    28.0000     7.0000     7.0000    22.0000     0.1000     1.2000     1.5414    40.0000     1.6970     0.0000     1.0000    40.000
     43    10.2000     30.000  31505.000   6133.000    147.000    129.000    153.000    140.000    148.000    149.000    210.000    117.000    154.000    123.000    130.000    116.000    143.000    132.000    132.000    128.000    135.000    191.000    129.000    148.000    141.000     99.000    161.000    119.000    110.000    128.000    112.000    137.000    137.000    142.000    106.000    132.000    133.000    114.000    112.000    104.000     94.000    111.000    108.000    602.000    149.000     73.000     68.000     87.000     9.5000     0.2700     2.5000     0.0000     0.0000     0.0000     0.0000   100.0000     0.0004    28.0000     7.0000     7.0000    22.0000     0.1000     1.2000     1.5421    40.0001     1.6944     0.0000     1.0000    40.000
     44    10.3000     30.000  31557.000   5869.000    139.000    141.000    141.000    138.000    173.000    151.000    195.000    130.000    161.000    112.000    122.000    121.000    124.000    140.000    131.000    113.000    138.000    124.000    128.000    123.000    143.000    115.000    222.000    100.000    120.000    123.000    123.000    122.000    111.000    196.000     86.000    121.000    109.000    111.000    111.000    126.000     94.000    117.000    103.000    398.000    144.000     76.000     62.000     91.000     9.5000     0.2700     2.5000     0.0000     0.0000     0.0000     0.0000   100.0000     0.0004    28.0000     7.0000     7.0000    22.0000     0.1000     1.2000     1.5414    39.9997     1.6926     0.0000     1.0000    40.000
     45    10.4000     30.000  32092.000   6068.000    110.000    143.000    145.000    168.000    156.000    127.000    205.000    122.000    141.000    109.000    148.000    129.000    130.000    144.000    139.000    126.000    111.000    112.000    113.000    121.000    146.000    116.000    349.000    101.000    116.000    127.000    140.000    127.000    139.000    341.000    117.000     98.000    114.000    134.000    133.000    109.000     76.000    126.000    129.000    272.000    131.000     76.000     82.000     70.000     9.5000     0.2700     2.5000     0.0000     0.0000     0.0000     0.0000   100.0000     0.0004    28.0000     7.0000     7.0000    22.0000     0.1000     1.2000     1.5425    40.0002     1.6904     0.0000     1.0000    40.000
     46    10.5000     30.000  31901.000   5854.000    138.000    142.000    129.000    139.000    149.000    124.000    177.000    124.000    141.000    138.000    136.000    115.000    126.000    125.000    149.000    124.000    128.000    129.000    112.000    127.000    108.000     98.000    420.000    103.000    117.000    124.000    113.000    114.000    107.000    350.000    132.000    118.000    120.000     97.000    114.000    114.000     97.000    104.000    113.000    191.000    106.000     80.000     73.000     69.000     9.5000     0.2700     2.5000     0.0000     0.0000     0.0000     0.0000   100.0000     0.0004    28.0000     7.0000     7.0000    22.0000     0.1000     1.2000     1.5430    40.0005     1.6888     0.0000     1.0000    40.000
     47    10.6000     30.000  31709.000   5856.000    128.000    162.000    151.000    159.000    149.000    135.000    183.000    146.000    132.000    128.000    102.000    112.000    126.000    137.000    131.000    117.000    142.000    136.000    136.000    147.000    138.000    122.000    301.000    103.000    140.000    119.000    118.000    114.000    111.000    291.000    112.000    109.000    119.000    113.000    116.000    133.000     85.000    119.000    120.000    150.000    110.000     76.000     99.000     79.000     9.5000     0.2700     2.5000     0.0000     0.0000     0.0000     0.0000   100.0000     0.0004    28.0000     7.0000     7.0000    22.0000     0.1000     1.2000     1.5418    40.0012     1.6857     0.0000     1.0000    40.000
     48    10.7000     30.000  31847.000   5621.000    129.000    165.000    132.000    138.000    170.000    131.000    146.000    127.000    130.000    134.000    106.000    128.000    144.000    153.000    142.000    118.000    164.000     91.000    109.000    160.000    117.000    104.000    207.000     97.000    131.000    121.000    124.000    117.000    136.000    283.000    110.000     93.000    121.000    127.000    115.000    123.000     82.000    110.000    120.000    127.000     97.000     82.000     86.000     74.000     9.5000     0.2700     2.5000     0.0000     0.0000     0.0000     0.0000   100.0000     0.0004    28.0000     7.0000     7.0000    22.0000     0.1000     1.2000     1.5427    39.9999     1.6863     0.0000     1.0000    40.000
     49    10.8000     30.000  31616.000   5950.000    137.000    158.000    135.000    155.000    189.000    126.000    164.000    118.000    144.000    133.000    124.000    110.000    150.000    126.000    148.000    121.000    206.000     93.000    119.000    231.000    141.000     98.000    205.000    134.000    102.000    118.000    147.000    112.000    133.000    301.000    126.000    102.000    130.000    120.000    139.000    140.000    105.000    112.000    155.000    107.000     93.000     80.000     79.000     84.000     9.5000     0.2700     2.5000     0.0000     0.0000     0.0000     0.0000   100.0000     0.0004    28.0000     7.0000     7.0000    22.0000     0.1000     1.2000     1.5432    40.0001     1.6843     0.0000     1.0000    40.000
     50    10.9000     30.000  31570.000   6057.000    123.000    129.000    146.000    137.000    158.000    157.000    143.000    117.000    140.000    143.000    142.000    139.000    154.000    140.000    168.000    129.000    201.000     91.000    116.000    295.000    160.000    121.000    305.000    142.000    115.000    122.000    137.000    118.000    119.000    207.000    105.000    118.000    116.000    113.000    127.000    128.000    108.000    124.000    149.000    118.000     86.000     87.000     91.000     73.000     9.5000     0.2700     2.5000     0.0000     0.0000     0.0000     0.0000   100.0000     0.0004    28.0000     7.0000     7.0000    22.0000     0.1000     1.2000     1.5424    39.9997     1.6838     0.0000     1.0000    40.000
     51    11.0000     30.000  31728.000   6240.000    138.000    165.000    147.000    160.000    165.000    151.000    155.000    118.000    137.000    126.000    141.000    138.000    127.000    128.000    180.000    140.000    228.000     99.000    180.000    234.000    179.000    128.000    335.000    217.000    117.000    123.000    115.000    112.000    117.000    156.000    105.000    122.000    118.000    130.000    141.000    150.000     98.000     97.000    134.000     99.000    136.000     92.000     91.000     71.000     9.5000     0.2700     2.5000     0.0000     0.0000     0.0000     0.0000   100.0000     0.0004    28.0000     7.0000     7.0000    22.0000     0.1000     1.2000     1.5422    40.0019     1.6833     0.0000     1.0000    40.000
     52    11.1000     30.000  31576.000   6301.000    143.000    142.000    166.000    139.000    154.000    152.000    122.000    110.000    147.000    144.000    117.000    126.000    126.000    139.000    197.000    105.000    194.000    103.000    322.000    147.000    171.000    133.000    218.000    366.000    106.000    146.000    119.000    134.000    161.000    128.000    118.000    119.000    121.000    135.000    143.000    170.000     94.000    124.000    152.000    103.000    118.000     71.000     89.000     67.000     9.5000     0.2700     2.5000     0.0000     0.0000     0.0000     0.0000   100.0000     0.0004    28.0000     7.0000     7.0000    22.0000     0.1000     1.2000     1.5437    40.0016     1.6821     0.0000     1.0000    40.000
     53    11.2000     30.000  31961.000   6228.000    156.000    142.000    151.000    128.000    155.000    160.000    161.000    119.000    141.000    138.000    115.000    115.000    155.000    154.000    219.000    118.000    193.000     96.000    305.000    149.000    135.000    132.000    161.000    335.000    109.000    117.000    126.000    113.000    224.000    123.000    134.000     92.000    117.000    127.000    132.000    171.000    108.000    119.000    127.000     95.000     98.000     85.000     88.000     90.000     9.5000     0.2700     2.5000     0.0000     0.0000     0.0000     0.0000   100.0000     0.0004    28.0000     7.0000     7.0000    22.0000     0.1000     1.2000     1.5443    39.9990     1.6820     0.0000     1.0000    40.000
     54    11.3000     30.000  31740.000   5967.000    120.000    167.000    109.000    163.000    177.000    145.000    133.000    124.000    153.000    137.000    117.000    133.000    128.000    174.000    198.000    138.000    145.000     99.000    228.000    143.000    132.000    117.000    130.000    176.000    114.000    120.000    121.000     92.000    264.000    116.000    121.000    122.000    143.000    131.000    147.000    171.000     86.000    118.000    143.000    117.000    111.000     78.000     75.000     91.000     9.5000     0.2700     2.5000     0.0000     0.0000     0.0000     0.0000   100.0000     0.0004    28.0000     7.0000     7.0000    22.0000     0.1000     1.2000     1.5436    39.9989     1.6805     0.0000     1.0000    40.000
     55    11.4000     30.000  32029.000   5988.000    118.000    165.000    155.000    140.000    136.000    144.000    158.000    135.000    128.000    119.000    128.000    135.000    131.000    199.000    154.000    116.000    139.000    103.000    135.000    145.000    132.000    128.000    140.000    123.000    133.000    135.000    117.000    112.000    338.000    110.000    131.000     94.000    143.000    160.000    137.000    188.000     99.000    142.000    121.000    110.000    113.000    113.000    106.000     80.000     9.5000     0.2700     2.5000     0.0000     0.0000     0.0000     0.0000   100.0000     0.0004    28.0000     7.0000     7.0000    22.0000     0.1000     1.2000     1.5433    40.0022     1.6815     0.0000     1.0000    40.000
     56    11.5000     30.000  31637.000   5963.000    122.000    151.000    163.000    152.000    174.000    133.000    123.000    130.000    133.000    139.000    107.000    109.000    133.000    175.000    149.000    121.000    137.000     93.000    121.000    140.000    132.000    108.000    111.000     96.000    115.000    200.000    124.000    133.000    463.000    116.000    140.000     95.000    128.000    177.000    128.000    179.000     87.000    144.000    145.000     86.000    119.000     83.000     76.000     73.000     9.5000     0.2700     2.5000     0.0000     0.0000     0.0000     0.0000   100.0000     0.0004    28.0000     7.0000     7.0000    22.0000     0.1000     1.2000     1.5437    39.8506     1.6751     0.0000     1.0000     0.000
     57    11.6000     30.000  32029.000   6129.000    139.000    148.000    145.000    153.000    159.000    138.000    135.000    117.000    117.000    137.000    128.000    119.000    122.000    166.000    143.000    106.000    126.000    104.000    170.000    131.000    122.000    125.000    112.000    103.000    126.000    235.000    129.000    126.000    403.000    113.000    157.000    101.000    137.000    171.000    132.000    296.000     88.000    148.000    133.000    114.000    114.000     67.000     88.000     86.000     9.5000     0.2700     2.5000     0.0000     0.0000     0.0000     0.0000   100.0000     0.0004    28.0000     7.0000     7.0000    22.0000     0.1000     1.2000     1.5430    38.9895     1.6727     0.0000     1.0000     0.000
     58    11.7000     30.000  31691.000   6059.000    120.000    157.000    145.000    157.000    154.000    142.000    147.000    110.000    137.000    146.000    129.000    119.000    137.000    186.000    147.000    114.000    133.000     95.000    202.000    112.000    148.000    102.000    109.000    129.000    109.000    252.000    139.000    104.000    256.000    106.000    191.000    107.000    132.000    131.000    101.000    268.000     97.000    162.000    141.000    143.000    101.000     82.000     81.000     79.000     9.5000     0.2700     2.5000     0.0000     0.0000     0.0000     0.0000   100.0000     0.0004    28.0000     7.0000     7.0000    22.0000     0.1000     1.2000     1.5429    38.0361     1.6661     0.0000     1.0000     0.000
     59    11.8000     30.000  31884.000   5960.000    143.000    145.000    140.000    145.000    157.000    129.000    133.000    117.000    139.000    146.000    138.000    126.000    139.000    213.000    147.000    106.000    128.000    115.000    194.000    124.000    116.000    121.000    116.000    103.000    110.000    178.000    107.000    113.000    165.000    102.000    280.000     84.000    109.000    134.000    103.000    247.000    121.000    173.000    152.000    134.000    121.000     88.000     68.000     91.000     9.5000     0.2700     2.5000     0.0000     0.0000     0.0000     0.0000   100.0000     0.0004    28.0000     7.0000     7.0000    22.0000     0.1000     1.2000     1.5436    37.0866     1.6576     0.0000     1.0000     0.000
     60    11.9000     30.000  31841.000   5790.000    112.000    143.000    172.000    141.000    179.000    145.000    125.000    133.000    111.000    132.000    130.000    123.000    154.000    219.000    147.000    130.000    133.000    105.000    142.000    136.000    139.000    122.000    108.000    130.000    120.000    130.000    107.000    113.000    138.000    103.000    269.000     88.000    116.000    117.000    123.000    193.000    102.000    148.000    130.000    125.000    106.000     76.000     85.000     90.000     9.5000     0.2700     2.5000     0.0000     0.0000     0.0000     0.0000   100.0000     0.0004    28.0000     7.0000     7.0000    22.0000     0.1000     1.2000     1.5430    36.2364     1.6506     0.0000     1.0000     0.000
     61    12.0000     30.000  31492.000   5755.000    112.000    166.000    151.000    158.000    155.000    123.000    146.000    110.000    140.000    116.000    131.000    141.000    145.000    177.000    143.000    123.000    123.000    101.000    130.000    114.000    154.000    112.000    167.000    100.000    133.000    131.000    122.000    123.000    130.000    101.000    221.000    105.000    129.000    127.000    106.000    175.000    106.000    154.000    164.000    115.000    125.000     76.000     76.000     98.000     9.5000     0.2700     2.5000     0.0000     0.0000     0.0000     0.0000   100.0000     0.0004    28.0000     7.0000     7.0000    22.0000     0.1000     1.2000     1.5424    35.3955     1.6420     0.0000     1.0000     0.000
# Sum of Counts = 1941212
# Center of Mass = 8.998082+/-0.009220
# Full Width Half-Maximum = 3.520342+/-0.003169
# 2:57:41 PM  8/13/2012   scan completed.
